Time	Ch 0
[s]	[V]
0.000000	-0.395318
0.000500	0.412079
0.001000	-0.395318
0.001500	0.412079
0.002000	-0.394989
0.002500	0.412079
0.003000	-0.394989
0.003500	0.411421
0.004000	-0.395318
0.004500	0.411421
0.005000	-0.395647
0.005500	0.411750
0.006000	-0.394660
0.006500	0.411421
0.007000	-0.395318
0.007500	0.412408
0.008000	-0.394989
0.008500	0.411421
0.009000	-0.394660
0.009500	0.411750
0.010000	-0.394989
0.010500	0.412079
0.011000	-0.395318
0.011500	0.412079
0.012000	-0.394989
0.012500	0.411750
0.013000	-0.395318
0.013500	0.411421
0.014000	-0.394332
0.014500	0.411750
0.015000	-0.394660
0.015500	0.411750
0.016000	-0.394660
0.016500	0.411750
0.017000	-0.394660
0.017500	0.411093
0.018000	-0.394332
0.018500	0.411421
0.019000	-0.394660
0.019500	0.411750
0.020000	-0.394660
0.020500	0.411093
0.021000	-0.394332
0.021500	0.411421
0.022000	-0.394660
0.022500	0.411093
0.023000	-0.394660
0.023500	0.411093
0.024000	-0.394660
0.024500	0.411421
0.025000	-0.394332
0.025500	0.411093
0.026000	-0.394332
0.026500	0.411093
0.027000	-0.394660
0.027500	0.411093
0.028000	-0.394660
0.028500	0.411093
0.029000	-0.394332
0.029500	0.410764
0.030000	-0.394989
0.030500	0.411093
0.031000	-0.394660
0.031500	0.411093
0.032000	-0.394003
0.032500	0.410435
0.033000	-0.394332
0.033500	0.410764
0.034000	-0.394332
0.034500	0.411421
0.035000	-0.394332
0.035500	0.411093
0.036000	-0.394003
0.036500	0.410764
0.037000	-0.393674
0.037500	0.410764
0.038000	-0.394332
0.038500	0.411093
0.039000	-0.394660
0.039500	0.410435
0.040000	-0.394003
0.040500	0.410435
0.041000	-0.394003
0.041500	0.410435
0.042000	-0.394332
0.042500	0.410435
0.043000	-0.393345
0.043500	0.411093
0.044000	-0.393674
0.044500	0.411093
0.045000	-0.394003
0.045500	0.410435
0.046000	-0.393674
0.046500	0.410435
0.047000	-0.394003
0.047500	0.410435
0.048000	-0.393016
0.048500	0.410106
0.049000	-0.393674
0.049500	0.410435
0.050000	-0.394003
0.050500	0.410435
0.051000	-0.393345
0.051500	0.410435
0.052000	-0.393016
0.052500	0.410764
0.053000	-0.393674
0.053500	0.410435
0.054000	-0.393674
0.054500	0.410435
0.055000	-0.394003
0.055500	0.410106
0.056000	-0.393345
0.056500	0.410435
0.057000	-0.393345
0.057500	0.409777
0.058000	-0.393345
0.058500	0.410106
0.059000	-0.392687
0.059500	0.410764
0.060000	-0.393345
0.060500	0.410106
0.061000	-0.393345
0.061500	0.410106
0.062000	-0.393345
0.062500	0.410435
0.063000	-0.393016
0.063500	0.409777
